#                                                                   TOTAL PARTICLE EMISSION SPECTRA
#      Emin       Emax  Spectra / Decay / MeV
#     [MeV]      [MeV]      gamma    neutron   electron   neutrino
     0.0000     0.0500 2.4375e-01 1.1379e-01 1.2827e-03 0.0000e+00
     0.0500     0.1500 6.6776e-01 2.0372e-01 2.2348e-03 2.3581e-06
     0.1500     0.2500 4.0591e-01 3.4999e-01 3.4369e-03 1.1259e-04
     0.2500     0.3500 3.2643e-01 7.1876e-01 4.6951e-03 4.1950e-04
     0.3500     0.4500 2.8769e-01 7.3142e-01 6.0347e-03 9.0230e-04
     0.4500     0.5500 2.6938e-01 4.1202e-01 7.4619e-03 1.5424e-03
     0.5500     0.6500 2.5640e-01 3.6841e-01 8.9775e-03 2.3231e-03
     0.6500     0.7500 2.4391e-01 4.0860e-01 1.0578e-02 3.2308e-03
     0.7500     0.8500 2.3075e-01 4.0929e-01 1.2257e-02 4.2568e-03
     0.8500     0.9500 2.1677e-01 4.0362e-01 1.4010e-02 5.4115e-03
     0.9500     1.0500 2.0258e-01 4.5435e-01 1.5831e-02 6.6684e-03
     1.0500     1.1500 1.8903e-01 5.2253e-01 1.7711e-02 8.0266e-03
     1.1500     1.2500 1.7602e-01 4.2101e-01 1.9643e-02 9.4889e-03
     1.2500     1.3500 5.1015e+00 3.5856e-01 2.1623e-02 1.1045e-02
     1.3500     1.4500 4.7089e-01 4.2423e-01 2.3646e-02 1.2680e-02
     1.4500     1.5500 3.1951e-01 4.3869e-01 2.5708e-02 1.4387e-02
     1.5500     1.6500 2.7314e-01 3.3148e-01 2.7806e-02 1.6159e-02
     1.6500     1.7500 2.4017e-01 3.2376e-01 2.9937e-02 1.7992e-02
     1.7500     1.8500 2.1425e-01 2.7492e-01 3.2096e-02 1.9872e-02
     1.8500     1.9500 1.9216e-01 3.2165e-01 3.4277e-02 2.1819e-02
     1.9500     2.0500 2.3619e-01 3.5669e-01 3.6474e-02 2.3804e-02
     2.0500     2.1500 1.6021e-01 2.2660e-01 3.8683e-02 2.5842e-02
     2.1500     2.2500 1.4420e-01 1.8638e-01 4.0902e-02 2.7915e-02
     2.2500     2.3500 1.2894e-01 1.8554e-01 4.3127e-02 3.0016e-02
     2.3500     2.4500 1.1439e-01 2.1178e-01 4.5355e-02 3.2143e-02
     2.4500     2.5500 1.0087e-01 2.0366e-01 4.7580e-02 3.4289e-02
     2.5500     2.6500 4.7915e-02 1.6186e-01 4.9798e-02 3.6455e-02
     2.6500     2.7500 4.2685e-02 1.8436e-01 5.2004e-02 3.8647e-02
     2.7500     2.8500 3.8297e-02 2.0366e-01 5.4196e-02 4.0851e-02
     2.8500     2.9500 3.4802e-02 1.4852e-01 5.6371e-02 4.3058e-02
     2.9500     3.0500 3.1491e-02 1.5062e-01 5.8527e-02 4.5265e-02
     3.0500     3.1500 2.8207e-02 2.3010e-01 6.0661e-02 4.7468e-02
     3.1500     3.2500 2.5055e-02 1.6980e-01 6.2771e-02 4.9663e-02
     3.2500     3.3500 2.2362e-02 1.3125e-01 6.4855e-02 5.1848e-02
     3.3500     3.4500 2.0273e-02 9.9137e-02 6.6910e-02 5.4019e-02
     3.4500     3.5500 1.8226e-02 6.6190e-02 6.8932e-02 5.6174e-02
     3.5500     3.6500 1.6198e-02 5.5397e-02 7.0918e-02 5.8320e-02
     3.6500     3.7500 1.4060e-02 6.0649e-02 7.2866e-02 6.0447e-02
     3.7500     3.8500 1.1868e-02 6.8089e-02 7.4776e-02 6.2548e-02
     3.8500     3.9500 2.3562e-04 6.1014e-02 7.6646e-02 6.4620e-02
     3.9500     4.0500 2.1174e-04 6.0616e-02 7.8472e-02 6.6662e-02
     4.0500     4.1500 1.9064e-04 5.4330e-02 8.0252e-02 6.8669e-02
     4.1500     4.2500 1.7175e-04 4.9450e-02 8.1983e-02 7.0650e-02
     4.2500     4.3500 1.5512e-04 5.4752e-02 8.3664e-02 7.2600e-02
     4.3500     4.4500 1.4029e-04 7.4846e-02 8.5294e-02 7.4510e-02
     4.4500     4.5500 1.2702e-04 5.6267e-02 8.6871e-02 7.6376e-02
     4.5500     4.6500 1.1510e-04 5.4169e-02 8.8394e-02 7.8198e-02
     4.6500     4.7500 1.0438e-04 5.1041e-02 8.9863e-02 7.9972e-02
     4.7500     4.8500 9.4678e-05 3.0802e-02 9.1278e-02 8.1698e-02
     4.8500     4.9500 8.5899e-05 2.6472e-02 9.2635e-02 8.3374e-02
     4.9500     5.0500 7.7927e-05 2.6353e-02 9.3935e-02 8.4999e-02
     5.0500     5.1500 7.0659e-05 3.0620e-02 9.5174e-02 8.6577e-02
     5.1500     5.2500 6.4027e-05 3.3894e-02 9.6354e-02 8.8107e-02
     5.2500     5.3500 5.7971e-05 2.8371e-02 9.7473e-02 8.9580e-02
     5.3500     5.4500 5.2365e-05 2.1518e-02 9.8532e-02 9.0996e-02
     5.4500     5.5500 5.9793e-08 1.8848e-02 9.9530e-02 9.2353e-02
     5.5500     5.6500 2.6868e-08 1.8719e-02 1.0046e-01 9.3652e-02
     5.6500     5.7500 2.0193e-08 1.8480e-02 1.0133e-01 9.4896e-02
     5.7500     5.8500 1.8823e-08 1.9022e-02 1.0214e-01 9.6087e-02
     5.8500     5.9500 2.0123e-08 1.9885e-02 1.0288e-01 9.7218e-02
     5.9500     6.0500 2.1566e-08 1.8728e-02 1.0355e-01 9.8285e-02
     6.0500     6.1500 2.3550e-08 1.8002e-02 1.0416e-01 9.9288e-02
     6.1500     6.2500 2.5156e-08 1.9949e-02 1.0471e-01 1.0023e-01
     6.2500     6.3500 2.1978e-08 1.4848e-02 1.0519e-01 1.0110e-01
     6.3500     6.4500 2.2423e-08 1.4624e-02 1.0561e-01 1.0191e-01
     6.4500     6.5500 2.4181e-08 1.4765e-02 1.0596e-01 1.0265e-01
     6.5500     6.6500 2.2875e-08 1.1048e-02 1.0625e-01 1.0334e-01
     6.6500     6.7500 2.4261e-08 9.9185e-03 1.0648e-01 1.0396e-01
     6.7500     6.8500 3.3725e-08 1.1983e-02 1.0664e-01 1.0452e-01
     6.8500     6.9500 3.3006e-08 1.0905e-02 1.0674e-01 1.0500e-01
     6.9500     7.0500 2.3515e-08 7.8564e-03 1.0678e-01 1.0543e-01
     7.0500     7.1500 2.2509e-08 8.4732e-03 1.0675e-01 1.0580e-01
     7.1500     7.2500 2.3382e-08 1.0630e-02 1.0667e-01 1.0610e-01
     7.2500     7.3500 2.8398e-08 9.7102e-03 1.0652e-01 1.0633e-01
     7.3500     7.4500 3.2762e-08 8.0095e-03 1.0631e-01 1.0651e-01
     7.4500     7.5500 2.8490e-08 6.5913e-03 1.0605e-01 1.0661e-01
     7.5500     7.6500 2.4786e-08 5.0948e-03 1.0572e-01 1.0666e-01
     7.6500     7.7500 2.3150e-08 5.2678e-03 1.0534e-01 1.0664e-01
     7.7500     7.8500 2.3573e-08 7.3213e-03 1.0491e-01 1.0656e-01
     7.8500     7.9500 2.5680e-08 5.5311e-03 1.0443e-01 1.0642e-01
     7.9500     8.0500 2.7489e-08 4.5061e-03 1.0389e-01 1.0622e-01
     8.0500     8.1500 2.5114e-08 6.5470e-03 1.0330e-01 1.0596e-01
     8.1500     8.2500 2.5245e-08 4.1470e-03 1.0266e-01 1.0565e-01
     8.2500     8.3500 3.1256e-08 2.9412e-03 1.0197e-01 1.0528e-01
     8.3500     8.4500 3.7660e-08 2.6850e-03 1.0124e-01 1.0485e-01
     8.4500     8.5500 3.0067e-08 2.8516e-03 1.0046e-01 1.0437e-01
     8.5500     8.6500 2.8731e-08 2.6963e-03 9.9637e-02 1.0384e-01
     8.6500     8.7500 2.8290e-08 2.1753e-03 9.8772e-02 1.0326e-01
     8.7500     8.8500 2.3937e-08 2.3565e-03 9.7866e-02 1.0262e-01
     8.8500     8.9500 2.4795e-08 2.8674e-03 9.6921e-02 1.0195e-01
     8.9500     9.0500 3.2725e-08 1.6260e-03 9.5938e-02 1.0122e-01
     9.0500     9.1500 3.1710e-08 2.0720e-03 9.4919e-02 1.0045e-01
     9.1500     9.2500 2.3654e-08 2.5022e-03 9.3862e-02 9.9625e-02
     9.2500     9.3500 2.6078e-08 1.6507e-03 9.2771e-02 9.8775e-02
     9.3500     9.4500 3.6455e-08 1.5991e-03 9.1647e-02 9.7882e-02
     9.4500     9.5500 3.5785e-08 1.2606e-03 9.0492e-02 9.6946e-02
     9.5500     9.6500 2.8337e-08 9.9389e-04 8.9309e-02 9.5966e-02
     9.6500     9.7500 2.0567e-08 7.0591e-04 8.8099e-02 9.4947e-02
     9.7500     9.8500 1.9823e-08 5.2826e-04 8.6864e-02 9.3894e-02
     9.8500     9.9500 2.2546e-08 6.9610e-04 8.5604e-02 9.2805e-02
     9.9500    10.0500 3.4080e-08 1.1848e-03 8.4322e-02 9.1681e-02
    10.0500    10.1500 2.9750e-08 9.1106e-04 8.3017e-02 9.0536e-02
    10.1500    10.2500 2.5635e-08 7.4706e-04 8.1692e-02 8.9360e-02
    10.2500    10.3500 3.4374e-08 4.2200e-04 8.0346e-02 8.8152e-02
    10.3500    10.4500 2.2145e-08 5.5330e-04 7.8981e-02 8.6927e-02
    10.4500    10.5500 2.0430e-08 7.0971e-04 7.7599e-02 8.5681e-02
    10.5500    10.6500 1.8540e-08 4.0997e-04 7.6202e-02 8.4405e-02
    10.6500    10.7500 1.4514e-08 3.8246e-04 7.4794e-02 8.3101e-02
    10.7500    10.8500 1.4286e-08 3.3116e-04 7.3375e-02 8.1771e-02
    10.8500    10.9500 1.5059e-08 2.0279e-04 7.1947e-02 8.0420e-02
    10.9500    11.0500 2.2435e-08 1.4575e-04 7.0511e-02 7.9054e-02
    11.0500    11.1500 2.9445e-08 1.8370e-04 6.9065e-02 7.7667e-02
    11.1500    11.2500 1.6793e-08 3.4949e-04 6.7610e-02 7.6281e-02
    11.2500    11.3500 1.5502e-08 3.7908e-04 6.6146e-02 7.4882e-02
    11.3500    11.4500 2.4035e-08 1.8550e-04 6.4673e-02 7.3471e-02
    11.4500    11.5500 1.7225e-08 9.1252e-05 6.3194e-02 7.2058e-02
    11.5500    11.6500 1.1911e-08 8.9581e-05 6.1711e-02 7.0629e-02
    11.6500    11.7500 1.5075e-08 1.3394e-04 6.0225e-02 6.9183e-02
    11.7500    11.8500 1.2875e-08 1.3654e-04 5.8737e-02 6.7722e-02
    11.8500    11.9500 1.0080e-08 1.4222e-04 5.7244e-02 6.6252e-02
    11.9500    12.0500 1.0086e-08 1.5551e-04 5.5748e-02 6.4783e-02
    12.0500    12.1500 1.3927e-08 8.6483e-05 5.4251e-02 6.3317e-02
    12.1500    12.2500 2.3685e-08 8.8592e-05 5.2752e-02 6.1843e-02
    12.2500    12.3500 1.5065e-08 1.0545e-04 5.1254e-02 6.0357e-02
    12.3500    12.4500 8.0741e-09 6.5853e-05 4.9756e-02 5.8867e-02
    12.4500    12.5500 8.2568e-09 8.2101e-05 4.8261e-02 5.7379e-02
    12.5500    12.6500 1.2354e-08 6.2073e-05 4.6770e-02 5.5885e-02
    12.6500    12.7500 1.1907e-08 7.4642e-05 4.5284e-02 5.4381e-02
    12.7500    12.8500 8.3369e-09 6.9199e-05 4.3805e-02 5.2877e-02
    12.8500    12.9500 1.0580e-08 2.9497e-05 4.2332e-02 5.1375e-02
    12.9500    13.0500 7.9687e-09 2.2496e-05 4.0864e-02 4.9872e-02
    13.0500    13.1500 5.7139e-09 2.3357e-05 3.9405e-02 4.8382e-02
    13.1500    13.2500 5.5371e-09 3.4015e-05 3.7954e-02 4.6897e-02
    13.2500    13.3500 6.6987e-09 3.2729e-05 3.6515e-02 4.5411e-02
    13.3500    13.4500 9.7733e-09 3.1386e-05 3.5089e-02 4.3925e-02
    13.4500    13.5500 6.7077e-09 6.0009e-05 3.3677e-02 4.2445e-02
    13.5500    13.6500 4.2814e-09 5.6881e-05 3.2282e-02 4.0971e-02
    13.6500    13.7500 4.0574e-09 1.9141e-05 3.0906e-02 3.9501e-02
    13.7500    13.8500 3.9883e-09 9.8862e-06 2.9550e-02 3.8038e-02
    13.8500    13.9500 3.9187e-09 1.0524e-05 2.8215e-02 3.6586e-02
    13.9500    14.0500 4.0366e-09 1.9989e-05 2.6902e-02 3.5148e-02
    14.0500    14.1500 5.0612e-09 3.0089e-05 2.5611e-02 3.3733e-02
    14.1500    14.2500 4.6698e-09 2.5409e-05 2.4345e-02 3.2336e-02
    14.2500    14.3500 3.4434e-09 8.7427e-06 2.3106e-02 3.0953e-02
    14.3500    14.4500 3.9564e-09 4.8720e-06 2.1895e-02 2.9586e-02
    14.4500    14.5500 4.2652e-09 4.5640e-06 2.0711e-02 2.8233e-02
    14.5500    14.6500 2.9205e-09 4.5129e-06 1.9555e-02 2.6909e-02
    14.6500    14.7500 2.5233e-09 6.8173e-06 1.8429e-02 2.5620e-02
    14.7500    14.8500 2.5702e-09 1.2700e-05 1.7335e-02 2.4351e-02
    14.8500    14.9500 3.1984e-09 1.1980e-05 1.6274e-02 2.3102e-02
    14.9500    15.0500 2.9469e-09 1.2619e-05 1.5248e-02 2.1879e-02
    15.0500    15.1500 2.0054e-09 1.2072e-05 1.4260e-02 2.0682e-02
    15.1500    15.2500 1.8500e-09 3.5040e-06 1.3309e-02 1.9511e-02
    15.2500    15.3500 1.8295e-09 2.0989e-06 1.2398e-02 1.8372e-02
    15.3500    15.4500 1.8126e-09 4.6123e-06 1.1528e-02 1.7266e-02
    15.4500    15.5500 1.8105e-09 6.0731e-06 1.0701e-02 1.6193e-02
    15.5500    15.6500 1.9641e-09 4.5383e-06 9.9208e-03 1.5151e-02
    15.6500    15.7500 2.2726e-09 6.3064e-06 9.1866e-03 1.4143e-02
    15.7500    15.8500 1.9188e-09 2.4759e-06 8.4990e-03 1.3167e-02
    15.8500    15.9500 1.3220e-09 8.0848e-07 7.8565e-03 1.2239e-02
    15.9500    16.0500 1.1958e-09 7.0680e-07 7.2524e-03 1.1352e-02
    16.0500    16.1500 1.1851e-09 6.8240e-07 6.6813e-03 1.0514e-02
    16.1500    16.2500 1.1902e-09 8.7140e-07 6.1421e-03 9.7661e-03
    16.2500    16.3500 1.3202e-09 2.5528e-06 5.6342e-03 9.0620e-03
    16.3500    16.4500 1.2749e-09 2.9437e-06 5.1572e-03 8.3891e-03
    16.4500    16.5500 8.9359e-10 1.6369e-06 4.7109e-03 7.7529e-03
    16.5500    16.6500 8.0352e-10 2.5404e-06 4.2946e-03 7.1489e-03
    16.6500    16.7500 7.9912e-10 1.3690e-06 3.9073e-03 6.5718e-03
    16.7500    16.8500 7.9758e-10 3.5057e-07 3.5496e-03 6.0339e-03
    16.8500    16.9500 7.9607e-10 7.3407e-07 3.2221e-03 5.5265e-03
    16.9500    17.0500 7.9701e-10 1.4386e-06 2.9245e-03 5.0421e-03
    17.0500    17.1500 8.1259e-10 7.0462e-07 2.6530e-03 4.5867e-03
    17.1500    17.2500 8.9705e-10 9.5018e-07 2.4027e-03 4.1559e-03
    17.2500    17.3500 7.9791e-10 7.6617e-07 2.1724e-03 3.7826e-03
    17.3500    17.4500 5.3859e-10 1.3013e-07 1.9625e-03 3.4502e-03
    17.4500    17.5500 4.9382e-10 4.6111e-08 1.7734e-03 3.1352e-03
    17.5500    17.6500 4.9378e-10 4.3103e-08 1.6022e-03 2.8378e-03
    17.6500    17.7500 4.9515e-10 5.0407e-08 1.4450e-03 2.5542e-03
    17.7500    17.8500 5.1931e-10 2.1114e-07 1.3000e-03 2.3116e-03
    17.8500    17.9500 5.1076e-10 5.5939e-07 1.1673e-03 2.1024e-03
    17.9500    18.0500 3.4222e-10 4.0255e-07 1.0453e-03 1.9058e-03
    18.0500    18.1500 2.8024e-10 1.9533e-07 9.3211e-04 1.7182e-03
    18.1500    18.2500 2.7811e-10 7.6092e-08 8.2720e-04 1.5545e-03
    18.2500    18.3500 2.7861e-10 3.6711e-08 7.3083e-04 1.4075e-03
    18.3500    18.4500 2.7928e-10 8.7463e-08 6.4332e-04 1.2679e-03
    18.4500    18.5500 2.8099e-10 2.0778e-07 5.6499e-04 1.1349e-03
    18.5500    18.6500 2.8489e-10 1.6471e-07 4.9558e-04 1.0091e-03
    18.6500    18.7500 2.9809e-10 1.9232e-08 4.3329e-04 8.9097e-04
    18.7500    18.8500 2.9689e-10 3.0531e-10 3.7599e-04 7.8058e-04
    18.8500    18.9500 1.9874e-10 6.5617e-13 3.2302e-04 6.9204e-04
    18.9500    19.0500 1.3778e-10 1.6120e-13 2.7449e-04 6.1683e-04
    19.0500    19.1500 1.3225e-10 6.3565e-11 2.3055e-04 5.4581e-04
    19.1500    19.2500 1.3248e-10 3.4202e-09 1.9115e-04 4.7861e-04
    19.2500    19.3500 1.3466e-10 2.6176e-08 1.5603e-04 4.1501e-04
    19.3500    19.4500 1.4025e-10 3.6213e-08 1.2507e-04 3.5646e-04
    19.4500    19.5500 9.4991e-11 1.5467e-08 9.8351e-05 3.0415e-04
    19.5500    19.6500 4.4194e-11 6.9316e-09 7.5951e-05 2.5583e-04
    19.6500    19.7500 3.7871e-11 1.2996e-08 5.7820e-05 2.1094e-04
    19.7500    19.8500 3.7931e-11 4.3055e-09 4.3951e-05 1.6982e-04
    19.8500    19.9500 3.8088e-11 1.9347e-10 3.4355e-05 1.3319e-04
    19.9500    20.0500 3.8186e-11 1.1766e-12 2.8209e-05 1.0088e-04
    20.0500    20.1500 3.8456e-11 0.0000e+00 2.3720e-05 7.0919e-05
    20.1500    20.2500 3.9144e-11 0.0000e+00 1.9726e-05 4.9813e-05
    20.2500    20.3500 3.1041e-11 0.0000e+00 1.6069e-05 4.1961e-05
    20.3500    20.4500 1.6547e-11 0.0000e+00 1.2756e-05 3.6579e-05
    20.4500    20.5500 1.0137e-11 0.0000e+00 9.7988e-06 3.1531e-05
    20.5500    20.6500 7.9574e-12 0.0000e+00 7.2090e-06 2.6780e-05
    20.6500    20.7500 2.1616e-12 0.0000e+00 4.9982e-06 2.2333e-05
    20.7500    20.8500 9.6060e-14 0.0000e+00 3.1782e-06 1.8198e-05
    20.8500    20.9500 5.9267e-16 0.0000e+00 1.7609e-06 1.4383e-05
    20.9500    21.0500 0.0000e+00 0.0000e+00 7.5825e-07 1.0884e-05
    21.0500    21.1500 0.0000e+00 0.0000e+00 1.8122e-07 7.6852e-06
    21.1500    21.2500 0.0000e+00 0.0000e+00 0.0000e+00 4.8134e-06
    21.2500    21.3500 0.0000e+00 0.0000e+00 0.0000e+00 2.4155e-06
    21.3500    21.4500 0.0000e+00 0.0000e+00 0.0000e+00 0.0000e+00